@ lambda (microns) Background Intensity [ERG/CM^2/SEC/HZ/SR]
@-----------------------------------------------------------
4.0000e-02     2.0598e-26
4.2900e-02     2.7909e-26
4.5900e-02     3.7815e-26
4.9200e-02     5.1237e-26
5.2700e-02     6.9422e-26
5.6500e-02     9.4062e-26
6.0500e-02     1.2745e-25
6.4900e-02     1.7268e-25
6.9500e-02     2.3397e-25
7.4500e-02     3.1702e-25
7.9800e-02     4.2954e-25
8.5500e-02     5.8199e-25
9.1600e-02     7.8856e-25
9.8200e-02     3.5866e-20
1.0500e-01     5.0350e-20
1.1300e-01     6.5869e-20
1.2100e-01     8.0605e-20
1.2900e-01     8.7169e-20
1.3900e-01     9.4203e-20
1.4900e-01     1.0174e-19
1.5900e-01     1.0415e-19
1.7100e-01     1.0562e-19
1.8300e-01     1.0719e-19
1.9600e-01     1.0938e-19
2.1000e-01     1.1224e-19
2.2500e-01     1.1531e-19
2.4100e-01     1.2473e-19
2.5800e-01     1.6470e-19
2.7700e-01     2.0753e-19
2.9700e-01     2.5342e-19
3.1800e-01     3.2246e-19
3.4000e-01     4.0032e-19
3.6500e-01     4.8374e-19
3.9100e-01     5.8159e-19
4.1900e-01     6.9493e-19
4.4900e-01     8.1638e-19
4.8100e-01     9.4972e-19
5.1500e-01     1.1082e-18
5.5200e-01     1.2780e-18
5.9200e-01     1.4600e-18
6.3400e-01     1.6611e-18
6.7900e-01     1.8776e-18
7.2800e-01     2.1097e-18
7.8000e-01     2.3223e-18
8.3600e-01     2.5139e-18
8.9500e-01     2.7192e-18
9.6000e-01     2.9317e-18
1.0300e+00     3.1219e-18
1.1000e+00     3.3257e-18
1.1800e+00     3.5441e-18
1.2600e+00     3.5962e-18
1.3600e+00     3.6167e-18
1.4500e+00     3.6386e-18
1.5600e+00     3.6115e-18
1.6700e+00     3.5313e-18
1.7900e+00     3.4454e-18
1.9100e+00     3.3474e-18
2.0000e+00     3.2636e-18
2.1000e+00     3.1656e-18
2.2000e+00     3.0676e-18
2.3000e+00     2.9696e-18
2.4000e+00     2.8751e-18
2.5000e+00     2.7956e-18
2.6000e+00     2.7162e-18
2.7000e+00     2.6367e-18
2.8000e+00     2.5573e-18
2.9000e+00     2.4778e-18
3.0000e+00     2.3981e-18
3.1000e+00     2.3096e-18
3.2000e+00     7.5525e-18
3.3000e+00     4.3895e-17
3.4000e+00     3.0884e-18
3.5000e+00     1.9474e-18
3.6000e+00     1.8572e-18
3.7000e+00     1.7670e-18
3.8000e+00     1.6897e-18
3.9000e+00     1.6498e-18
4.0000e+00     1.6099e-18
4.1000e+00     1.5700e-18
4.2000e+00     1.5300e-18
4.3000e+00     1.4901e-18
4.4000e+00     1.4502e-18
4.5000e+00     1.4102e-18
4.6000e+00     1.3703e-18
4.7000e+00     1.3304e-18
4.8000e+00     1.3199e-18
4.9000e+00     1.3403e-18
5.0000e+00     1.3606e-18
5.1000e+00     1.3809e-18
5.2000e+00     1.4012e-18
5.3000e+00     1.4215e-18
5.4000e+00     1.4419e-18
5.5000e+00     1.4622e-18
5.6000e+00     1.4825e-18
5.7000e+00     1.5028e-18
5.8000e+00     1.5231e-18
5.9000e+00     1.5434e-18
6.0000e+00     1.5708e-18
6.1000e+00     3.0884e-18
6.2000e+00     9.2819e-17
6.3000e+00     4.6626e-17
6.4000e+00     1.8495e-17
6.5000e+00     2.9958e-18
6.6000e+00     1.9193e-18
6.7000e+00     1.9774e-18
6.8000e+00     2.0355e-18
6.9000e+00     2.0936e-18
7.0000e+00     2.1517e-18
7.1000e+00     2.2098e-18
7.2000e+00     3.3514e-18
7.3000e+00     1.1345e-17
7.4000e+00     3.1773e-17
7.5000e+00     6.7070e-17
7.6000e+00     9.7815e-17
7.7000e+00     8.3620e-17
7.8000e+00     8.6378e-17
7.9000e+00     6.7141e-17
8.0000e+00     3.8629e-17
8.1000e+00     2.2242e-17
8.2000e+00     2.0979e-17
8.3000e+00     2.7714e-17
8.4000e+00     2.8255e-17
8.5000e+00     4.1045e-17
8.6000e+00     5.4314e-17
8.7000e+00     3.8787e-17
8.8000e+00     1.9428e-17
8.9000e+00     1.2115e-17
9.0000e+00     3.4996e-18
9.1000e+00     3.5704e-18
9.2000e+00     3.6411e-18
9.3000e+00     3.7119e-18
9.4000e+00     3.7826e-18
9.5000e+00     3.8556e-18
9.6000e+00     3.9384e-18
9.7000e+00     4.0211e-18
9.8000e+00     4.1039e-18
9.9000e+00     4.1866e-18
1.0000e+01     4.2694e-18
1.0100e+01     4.3521e-18
1.0200e+01     4.4349e-18
1.0300e+01     4.5176e-18
1.0400e+01     4.6003e-18
1.0500e+01     4.6831e-18
1.0600e+01     4.7658e-18
1.0700e+01     4.8486e-18
1.0800e+01     4.9313e-18
1.0900e+01     5.0141e-18
1.1000e+01     1.2794e-17
1.1100e+01     1.8747e-17
1.1200e+01     7.6213e-17
1.1300e+01     6.6957e-17
1.1400e+01     3.1259e-17
1.1500e+01     1.9385e-17
1.1600e+01     1.2073e-17
1.1700e+01     5.6760e-18
1.1800e+01     5.7588e-18
1.1900e+01     5.8415e-18
1.2000e+01     5.9355e-18
1.2900e+01     6.7930e-18
1.3800e+01     7.7118e-18
1.4800e+01     8.6963e-18
1.5800e+01     9.9256e-18
1.7000e+01     1.1305e-17
1.8200e+01     1.2783e-17
1.9500e+01     1.4505e-17
2.0900e+01     1.6551e-17
2.2300e+01     1.8743e-17
2.3900e+01     2.1134e-17
2.5700e+01     2.4188e-17
2.7500e+01     2.7461e-17
2.9500e+01     3.0968e-17
3.1600e+01     3.5328e-17
3.3800e+01     4.0212e-17
3.6200e+01     4.5446e-17
3.8800e+01     5.1563e-17
4.1600e+01     5.8870e-17
4.4600e+01     6.6700e-17
4.7800e+01     7.5244e-17
5.1200e+01     8.6240e-17
5.4900e+01     9.8023e-17
5.8800e+01     1.1065e-16
6.3000e+01     1.2604e-16
6.7500e+01     1.4320e-16
7.2300e+01     1.6158e-16
7.7500e+01     1.8325e-16
8.3000e+01     2.0938e-16
8.9000e+01     2.3739e-16
9.5300e+01     2.6672e-16
1.0200e+02     2.8978e-16
1.0900e+02     3.1450e-16
1.1700e+02     3.4098e-16
1.2600e+02     3.4820e-16
1.3500e+02     3.4849e-16
1.4400e+02     3.4881e-16
1.5500e+02     3.4189e-16
1.6600e+02     3.2369e-16
1.7700e+02     3.0418e-16
1.9000e+02     2.8317e-16
2.0400e+02     2.5928e-16
2.1800e+02     2.3369e-16
2.3400e+02     2.0627e-16
2.5100e+02     1.8368e-16
2.6900e+02     1.6188e-16
2.8800e+02     1.3851e-16
3.0800e+02     1.1867e-16
3.3100e+02     1.0509e-16
3.5400e+02     9.0536e-17
3.7900e+02     7.6554e-17
4.0700e+02     8.1249e-17
4.3600e+02     8.6281e-17
4.6700e+02     9.1672e-17
5.0000e+02     1.3414e-16
5.3600e+02     1.9256e-16
5.7400e+02     2.5515e-16
6.1500e+02     3.5659e-16
6.5900e+02     5.1600e-16
7.0700e+02     6.8680e-16
7.5700e+02     8.7482e-16
8.1100e+02     1.1372e-15
8.6900e+02     1.4183e-15
9.3100e+02     1.7195e-15
9.9800e+02     2.0140e-15
1.0700e+03     2.3195e-15
1.1500e+03     2.6469e-15
1.2300e+03     2.9348e-15
1.3200e+03     3.1506e-15
1.4100e+03     3.3819e-15
1.5100e+03     3.6149e-15
1.6200e+03     3.6816e-15
1.7300e+03     3.7531e-15
1.8600e+03     3.8297e-15
1.9900e+03     3.8010e-15
2.1300e+03     3.7312e-15
2.2900e+03     3.6564e-15
2.4500e+03     3.5497e-15
2.6300e+03     3.3963e-15
2.8100e+03     3.2319e-15
3.0100e+03     3.0565e-15
3.2300e+03     2.8788e-15
3.4600e+03     2.6884e-15
3.7100e+03     2.4844e-15
3.9700e+03     2.3056e-15
4.2600e+03     2.1281e-15
4.5600e+03     1.9379e-15
4.8900e+03     1.7630e-15
5.0000e+03     1.7168e-15
